Comment			
voltage(mV)		Control	.+Bup	diff
-149.575		-252.747	-167.404	-85.343
-149.565		-229.187	-169.861	-59.326
-149.577		-239.034	-167.801	-71.233
-149.622		-254.659	-169.479	-85.18
-149.626		-262.227	-175.369	-86.858
-149.632		-246.704	-172.043	-74.661
-149.459		-248.454	-177.582	-70.872
-149.345		-237.671	-164.246	-73.425
-149.152		-230.977	-167.862	-63.115
-148.991		-220.927	-160.934	-59.993
-148.788		-225.566	-171.02		-54.546
-148.713		-241.048	-152.191	-88.857
-148.652		-237.752	-155.563	-82.189
-148.497		-213.359	-168.35		-45.009
-148.322		-232.707	-158.417	-74.29
-148.123		-218.018	-164.429	-53.589
-148.021		-218.424	-145.798	-72.626
-147.832		-225.688	-139.053	-86.635
-147.683		-223.124	-156.57		-66.554
-147.533		-236.816	-165.375	-71.441
-147.439		-228.984	-152.649	-76.335
-147.268		-220.439	-153.198	-67.241
-147.136		-227.58		-154.724	-72.856
-147.006		-241.394	-147.766	-93.628
-146.778		-232.218	-155.609	-76.609
-146.711		-238.708	-178.665	-60.043
-146.542		-230.57		-173.874	-56.696
-146.403		-236.959	-166.473	-70.486
-146.275		-243.083	-164.185	-78.898
-146.163		-250.956	-168.243	-82.713
-145.988		-239.38		-161.087	-78.293
-145.834		-223.511	-170.135	-53.376
-145.614		-225.098	-158.615	-66.483
-145.555		-213.277	-171.143	-42.134
-145.331		-222.656	-164.337	-58.319
-145.254		-227.722	-161.575	-66.147
-145.055		-234.273	-165.024	-69.249
-144.884		-232.727	-172.226	-60.501
-144.755		-232.707	-174.957	-57.75
-144.617		-225.362	-181.641	-43.721
-144.469		-252.36		-174.622	-77.738
-144.328		-253.011	-150.711	-102.3
-144.218		-252.055	-144.318	-107.737
-144.035		-256.551	-162.491	-94.06
-143.942		-252.34		-163.467	-88.873
-143.809		-250.041	-160.507	-89.534
-143.632		-257.263	-162.109	-95.154
-143.478		-241.15		-159.363	-81.787
-143.368		-233.398	-150.482	-82.916
-143.203		-248.678	-146.408	-102.27
-143.093		-238.953	-146.042	-92.911
-142.898		-236.267	-140.518	-95.749
-142.778		-252.97		-145.035	-107.935
-142.564		-248.962	-150.589	-98.373
-142.416		-212.382	-141.769	-70.613
-142.286		-221.822	-132.477	-89.345
-142.176		-219.686	-131.363	-88.323
-141.966		-232.076	-140.976	-91.1
-141.903		-205.139	-143.6		-61.539
-141.759		-221.639	-138.397	-83.242
-141.679		-224.406	-142.395	-82.011
-141.455		-229.004	-141.647	-87.357
-141.266		-220.398	-146.347	-74.051
-141.093		-212.708	-150.742	-61.966
-140.971		-198.893	-143.677	-55.216
-140.876		-208.415	-138.473	-69.942
-140.863		-221.497	-154.556	-66.941
-140.625		-206.441	-139.374	-67.067
-140.465		-206.563	-128.708	-77.855
-140.328		-215.963	-152.618	-63.345
-140.139		-211.894	-152.039	-59.855
-140.037		-219.157	-141.052	-78.105
-139.871		-243.042	-133.591	-109.451
-139.738		-222.27		-141.861	-80.409
-139.602		-218.831	-148.743	-70.088
-139.474		-225.24		-137.878	-87.362
-139.264		-220.418	-137.772	-82.646
-139.128		-218.913	-150.619	-68.294
-138.971		-209.025	-144.196	-64.829
-138.823		-206.991	-152.878	-54.113
-138.715		-223.551	-157.516	-66.035
-138.599		-239.766	-149.277	-90.489
-138.412		-233.907	-139.465	-94.442
-138.235		-232.646	-130.493	-102.153
-138.137		-241.435	-135.696	-105.739
-138.035		-235.86		-140.579	-95.281
-137.885		-235.697	-139.297	-96.4
-137.749		-244.69		-119.461	-125.229
-137.529		-222.209	-133.972	-88.237
-137.376		-219.727	-130.325	-89.402
-137.279		-236.308	-118.652	-117.656
-137.073		-224.019	-126.343	-97.676
-136.957		-224.691	-128.586	-96.105
-136.833		-206.746	-132.019	-74.727
-136.699		-205.343	-142.364	-62.979
-136.536		-227.254	-131.943	-95.311
-136.428		-220.215	-139.587	-80.628
-136.282		-217.489	-146.255	-71.234
-136.194		-215.006	-144.226	-70.78
-135.977		-227.152	-139.145	-88.007
-135.84			-240.417	-138.824	-101.593
-135.633		-229.797	-149.765	-80.032
-135.533		-221.822	-134.964	-86.858
-135.421		-217.855	-146.912	-70.943
-135.25			-237.752	-151.703	-86.049
-135.083		-239.095	-138.336	-100.759
-135.022		-221.639	-145.905	-75.734
-134.815		-219.706	-142.578	-77.128
-134.664		-196.472	-140.701	-55.771
-134.491		-225.159	-149.384	-75.775
-134.408		-219.686	-139.282	-80.404
-134.231		-236.572	-146.011	-90.561
-134.123		-254.944	-153.915	-101.029
-133.91			-252.869	-143.448	-109.421
-133.792		-248.535	-141.998	-106.537
-133.674		-255.31		-138.748	-116.562
-133.456		-251.628	-146.133	-105.495
-133.399		-251.017	-144.806	-106.211
-133.204		-256.205	-144.028	-112.177
-133.134		-254.7		-148.407	-106.293
-132.968		-270.874	-148.468	-122.406
-132.805		-247.701	-121.826	-125.875
-132.616		-248.962	-127.029	-121.933
-132.473		-228.394	-136.261	-92.133
-132.443		-218.445	-133.286	-85.159
-132.215		-236.409	-128.693	-107.716
-132.009		-235.026	-118.683	-116.343
-131.946		-233.317	-125.763	-107.554
-131.777		-234.233	-114.792	-119.441
-131.619		-237.63		-119.08		-118.55
-131.509		-233.561	-115.631	-117.93
-131.362		-252.95		-132.523	-120.427
-131.163		-256.856	-123.352	-133.504
-131.082		-244.486	-136.017	-108.469
-130.886		-229.533	-116.47		-113.063
-130.77			-225.016	-136.002	-89.014
-130.648		-254.944	-129.669	-125.275
-130.443		-242.147	-132.202	-109.945
-130.349		-251.444	-135.941	-115.503
-130.239		-245.544	-142.09		-103.454
-130.032		-225.464	-121.811	-103.653
-129.922		-230.896	-120.651	-110.245
-129.771		-236.633	-117.737	-118.896
-129.578		-226.095	-132.141	-93.954
-129.499		-224.976	-122.803	-102.173
-129.352		-232.34		-129.303	-103.037
-129.228		-228.251	-141.495	-86.756
-129.073		-224.426	-138.214	-86.212
-128.919		-231.567	-141.434	-90.133
-128.781		-237.142	-137.802	-99.34
-128.518		-215.515	-127.624	-87.891
-128.518		-220.703	-127.274	-93.429
-128.315		-228.088	-134.842	-93.246
-128.184		-223.307	-138.031	-85.276
-128.054		-223.897	-129.639	-94.258
-127.924		-244.914	-128.22		-116.694
-127.714		-231.486	-129.501	-101.985
-127.586		-223.999	-126.404	-97.595
-127.446		-217.895	-138.336	-79.559
-127.253		-217.875	-133.331	-84.544
-127.157		-223.49		-130.356	-93.134
-126.988		-217.407	-136.475	-80.932
-126.892		-218.608	-137.009	-81.599
-126.787		-205.444	-145.02		-60.424
-126.591		-211.69		-129.471	-82.219
-126.402		-224.223	-140.03		-84.193
-126.366		-233.846	-140.167	-93.679
-126.132		-239.705	-123.947	-115.758
-125.973		-229.757	-118.973	-110.784
-125.845		-210.734	-128.281	-82.453
-125.733		-231.669	-121.14		-110.529
-125.562		-227.376	-117.752	-109.624
-125.444		-225.525	-107.193	-118.332
-125.269		-209.066	-111.755	-97.311
-125.108		-199.015	-116.821	-82.194
-124.968		-209.025	-116.196	-92.829
-124.801		-202.108	-125.58		-76.528
-124.728		-206.807	-123.062	-83.745
-124.571		-198.283	-125.885	-72.398
-124.408		-212.626	-125.687	-86.939
-124.223		-220.683	-126.236	-94.447
-124.085		-193.522	-128.22		-65.302
-123.916		-207.316	-121.887	-85.429
-123.91			-204.488	-126.709	-77.779
-123.615		-213.501	-125.244	-88.257
-123.525		-219.584	-130.951	-88.633
-123.383		-205.749	-133.469	-72.28
-123.263		-213.338	-138.351	-74.987
-123.11			-209.757	-125.381	-84.376
-122.954		-211.711	-118.759	-92.952
-122.779		-219.666	-123.138	-96.528
-122.689		-227.539	-115.906	-111.633
-122.506		-218.709	-112.9		-105.809
-122.351		-220.378	-113.48		-106.898
-122.223		-208.577	-125.656	-82.921
-122.156		-208.883	-117.599	-91.284
-121.961		-186.869	-94.2535	-92.6155
-121.827		-201.986	-105.118	-96.868
-121.696		-195.516	-124.527	-70.989
-121.491		-167.501	-115.448	-52.053
-121.401		-177.165	-110.794	-66.371
-121.169		-189.779	-110.855	-78.924
-121.08			-212.219	-110.504	-101.715
-120.944		-192.403	-119.629	-72.774
-120.801		-213.135	-112.579	-100.556
-120.655		-221.781	-109.543	-112.238
-120.539		-216.838	-115.341	-101.497
-120.35			-213.013	-116.791	-96.222
-120.248		-203.756	-118.103	-85.653
-120.044		-189.107	-112.198	-76.909
-119.928		-196.452	-119.278	-77.174
-119.762		-207.275	-105.423	-101.852
-119.585		-188.721	-114.304	-74.417
-119.456		-209.29		-121.49		-87.8
-119.33			-207.377	-133.56		-73.817
-119.233		-204.895	-127.655	-77.24
-119.096		-196.574	-123.81		-72.764
-118.889		-196.96		-121.368	-75.592
-118.793		-206.38		-128.677	-77.703
-118.569		-194.743	-113.571	-81.172
-118.447		-197.205	-113.586	-83.619
-118.35			-193.848	-107.483	-86.365
-118.205		-193.949	-109.955	-83.994
-118.051		-195.028	-104.065	-90.963
-117.839		-212.138	-111.13		-101.008
-117.733		-196.106	-118.393	-77.713
-117.638		-188.11		-115.25		-72.86
-117.471		-205.851	-114.777	-91.074
-117.263		-205.566	-106.842	-98.724
-117.178		-190.124	-106.293	-83.831
-117.017		-193.746	-118.317	-75.429
-116.889		-200.155	-117.508	-82.647
-116.696		-214.579	-105.057	-109.522
-116.669		-210.653	-107.208	-103.445
-116.388		-209.554	-113.693	-95.861
-116.325		-202.535	-127.96		-74.575
-116.142		-203.491	-129.486	-74.005
-116.002		-206.116	-123.26		-82.856
-115.845		-210.47		-107.01		-103.46
-115.729		-202.108	-105.438	-96.67
-115.548		-208.252	-112.427	-95.825
-115.457		-198.893	-110.886	-88.007
-115.292		-196.757	-104.858	-91.899
-115.103		-195.74		-104.767	-90.973
-115.007		-206.767	-112.442	-94.325
-114.921		-197.001	-116.44		-80.561
-114.724		-205.648	-117.828	-87.82
-114.576		-204.59		-110.977	-93.613
-114.443		-197.347	-104.98		-92.367
-114.264		-188.965	-115.417	-73.548
-114.183		-196.716	-114.593	-82.123
-113.967		-216.105	-105.118	-110.987
-113.861		-223.45		-109.787	-113.663
-113.65			-219.462	-109.68		-109.782
-113.487		-208.679	-109.543	-99.136
-113.351		-198.608	-108.078	-90.53
-113.308		-200.704	-115.295	-85.409
-113.066		-205.546	-111.313	-94.233
-112.964		-197.428	-106.079	-91.349
-112.822		-198.629	-106.598	-92.031
-112.74			-203.857	-100.418	-103.439
-112.488		-194.153	-97.5494	-96.6036
-112.384		-206.665	-104.507	-102.158
-112.238		-199.768	-118.256	-81.512
-112.087		-218.424	-107.376	-111.048
-111.965		-217.183	-110.428	-106.755
-111.935		-206.868	-115.753	-91.115
-111.735		-196.757	-119.522	-77.235
-111.465		-185.425	-120.499	-64.926
-111.361		-190.063	-122.116	-67.947
-111.274		-188.07		-117.767	-70.303
-111.119		-199.768	-126.221	-73.547
-110.983		-217.957	-122.208	-95.749
-110.836		-214.478	-121.094	-93.384
-110.647		-210.632	-126.48		-84.152
-110.433		-206.726	-122.818	-83.908
-110.348		-203.634	-116.562	-87.072
-110.23			-209.676	-105.164	-104.512
-110.079		-217		-107.452	-109.548
-109.9797		-227.824	-106.628	-121.196
-109.8169		-220.642	-109.802	-110.84
-109.6419		-214.071	-114.944	-99.127
-109.4425		-213.074	-116.455	-96.619
-109.4059		-224.243	-110.413	-113.83
-109.1842		-218.994	-123.459	-95.535
-109.0662		-214.376	-117.63		-96.746
-108.8627		-221.985	-117.92		-104.065
-108.7223		-213.013	-115.677	-97.336
-108.586		-217.387	-120.529	-96.858
-108.4273		-203.573	-132.706	-70.867
-108.3622		-206.807	-130.371	-76.436
-108.1649		-191.406	-115.875	-75.531
-108.0489		-207.235	-123.993	-83.242
-107.9309		-215.474	-126.343	-89.131
-107.7254		-221.883	-118.835	-103.048
-107.6196		-212.87		-115.86		-97.01
-107.467		-213.338	-112.518	-100.82
-107.2941		-216.166	-121.597	-94.569
-107.1598		-218.953	-123.962	-94.991
-107.0256		-211.365	-118.179	-93.186
-106.9503		-227.193	-113.922	-113.271
-106.7			-227.315	-119.171	-108.144
-106.6715		-233.256	-120.193	-113.063
-106.4945		-220.093	-111.16		-108.933
-106.3298		-209.839	-115.921	-93.918
-106.2016		-211.487	-113.647	-97.84
-105.9757		-212.992	-102.432	-110.56
-105.8822		-212.748	-111.694	-101.054
-105.7499		-219.381	-105.591	-113.79
-105.6685		-215.393	-107.834	-107.559
-105.4386		-217.733	-114.838	-102.895
-105.3695		-232.34		-110.916	-121.424
-105.1457		-238.281	-99.9756	-138.3054
-105.0114		-225.26		-93.3838	-131.8762
-104.8873		-233.114	-92.8497	-140.2643
-104.7062		-223.165	-97.6562	-125.5088
-104.6045		-223.002	-103.638	-119.364
-104.3868		-225.83		-105.347	-120.483
-104.399		-234.029	-104.752	-129.277
-104.1508		-226.807	-109.36		-117.447
-103.9941		-239.502	-126.877	-112.625
-103.8883		-215.23		-121.033	-94.197
-103.7113		-213.969	-110.321	-103.648
-103.5506		-216.37		-115.005	-101.365
-103.396		-208.15		-119.705	-88.445
-103.3553		-204.061	-120.407	-83.654
-103.1356		-207.092	-116.257	-90.835
-103.0501		-206.278	-118.195	-88.083
-102.8426		-195.821	-116.043	-79.778
-102.7185		-203.512	-116.043	-87.469
-102.629		-205.749	-117.126	-88.623
-102.4581		-195.76		-116.089	-79.671
-102.218		-214.396	-119.354	-95.042
-102.1163		-207.56		-120.56		-87
-101.982		-198.995	-115.036	-83.959
-101.8274		-200.338	-114.151	-86.187
-101.6545		-181.681	-109.695	-71.986
-101.5324		-186.849	-105.118	-81.731
-101.4022		-179.871	-105.576	-74.295
-101.274		-181.763	-118.149	-63.614
-101.0889		-185.893	-115.662	-70.231
-100.9729		-203.328	-118.835	-84.493
-100.8081		-196.065	-104.782	-91.283
-100.6942		-198.608	-104.919	-93.689
-100.566		-201.355	-105.194	-96.161
-100.3666		-194.112	-113.8		-80.312
-100.2466		-209.473	-109.024	-100.449
-100.0452		-213.338	-106.171	-107.167
-100.0208		-201.457	-108.231	-93.226
-99.801			-199.849	-108.78		-91.069
-99.6464		-194.478	-117.233	-77.245
-99.5304		-205.607	-118.408	-87.199
-99.3311		-201.742	-105.698	-96.044
-99.1846		-204.793	-107.239	-97.554
-99.0706		-194.865	-116.241	-78.624
-98.8875		-210.002	-111.679	-98.323
-98.8			-213.806	-114.166	-99.64
-98.6637		-216.39		-109.955	-106.435
-98.4989		-207.906	-109.543	-98.363
-98.3484		-207.621	-99.7467	-107.8743
-98.206			-200.948	-103.882	-97.066
-98.0127		-192.973	-107.422	-85.551
-97.9069		-188.192	-103.241	-84.951
-97.8255		-187.764	-112.503	-75.261
-97.6302		-192.078	-109.65		-82.428
-97.5366		-179.464	-110.855	-68.609
-97.4613		-186.686	-107.3		-79.386
-97.2457		-181.844	-103.622	-78.222
-97.0097		-184.57		-101.501	-83.069
-96.8917		-189.657	-104.019	-85.638
-96.7635		-204.407	-113.617	-90.79
-96.5865		-186.157	-114.624	-71.533
-96.4604		-192.586	-106.293	-86.293
-96.3586		-181.335	-106.171	-75.164
-96.1979		-187.948	-102.509	-85.439
-96.0291		-186.117	-102.982	-83.135
-95.9477		-190.877	-102.173	-88.704
-95.7564		-192.098	-104.156	-87.942
-95.5896		-195.109	-92.987		-102.122
-95.4777		-188.11		-92.6666	-95.4434
-95.3109		-191.833	-95.6421	-96.1909
-95.1359		-200.684	-97.3663	-103.3177
-94.9996		-194.214	-100.403	-93.811
-94.9447		-186.483	-106.079	-80.404
-94.731			-188.985	-95.9015	-93.0835
-94.609			-189.534	-94.8639	-94.6701
-94.432			-198.914	-98.9837	-99.9303
-94.3038		-199.971	-93.7347	-106.2363
-94.1512		-193.359	-89.2944	-104.0646
-93.9742		-195.251	-89.9963	-105.2547
-93.9213		-196.147	-90.7593	-105.3877
-93.7077		-189.982	-96.4966	-93.4854
-93.5592		-188.253	-91.8274	-96.4256
-93.4839		-184.469	-92.7887	-91.6803
-93.3171		-182.251	-90.5304	-91.7206
-93.1299		-178.731	-86.4868	-92.2442
-92.9549		-172.689	-88.913		-83.776
-92.8044		-180.4		-91.507		-88.893
-92.6986		-189.473	-91.8121	-97.6609
-92.5562		-191.305	-96.9391	-94.3659
-92.4483		-196.025	-105.56		-90.465
-92.251			-193.746	-98.3581	-95.3879
-92.137			-192.444	-94.8334	-97.6106
-92.0068		-205.526	-94.0704	-111.4556
-91.8481		-207.845	-92.5293	-115.3157
-91.7017		-195.292	-95.4895	-99.8025
-91.5308		-183.533	-99.2279	-84.3051
-91.4209		-185.242	-99.8535	-85.3885
-91.2337		-175.496	-95.1691	-80.3269
-91.1686		-178.711	-99.4873	-79.2237
-90.9489		-181.885	-101.364	-80.521
-90.9062		-194.702	-100.098	-94.604
-90.6478		-186.096	-87.4634	-98.6326
-90.5298		-179.993	-77.774		-102.219
-90.4138		-176.778	-85.022		-91.756
-90.2531		-174.154	-81.7413	-92.4127
-90.0964		-182.638	-85.8307	-96.8073
-89.9398		-179.016	-91.7053	-87.3107
-89.8869		-172.526	-88.4552	-84.0708
-89.6305		-178.08		-90.6372	-87.4428
-89.4861		-193.583	-84.9609	-108.6221
-89.3742		-190.084	-80.8258	-109.2582
-89.2013		-191.305	-71.0754	-120.2296
-89.069			-185.669	-82.2296	-103.4394
-88.9164		-176.188	-93.399		-82.789
-88.8106		-189.758	-89.035		-100.723
-88.6987		-186.991	-90.3931	-96.5979
-88.5217		-184.367	-92.865		-91.502
-88.4058		-179.423	-103.241	-76.182
-88.2633		-189.087	-99.5025	-89.5845
-88.0741		-179.057	-95.5658	-83.4912
-87.8951		-176.29		-99.5941	-76.6959
-87.7832		-174.052	-98.6633	-75.3887
-87.6957		-177.043	-88.0737	-88.9693
-87.5126		-175.598	-90.0421	-85.5559
-87.3132		-175.863	-87.3413	-88.5217
-87.1973		-191.956	-86.441		-105.515
-87.0854		-181.864	-87.3413	-94.5227
-86.9267		-185.079	-87.8754	-97.2036
-86.7802		-176.676	-92.4072	-84.2688
-86.6764		-176.554	-89.5843	-86.9697
-86.4954		-171.305	-88.623		-82.682
-86.3468		-177.266	-92.1326	-85.1334
-86.2919		-186.218	-84.6863	-101.5317
-86.0661		-167.44		-78.6438	-88.7962
-85.8586		-168.762	-76.3702	-92.3918
-85.7731		-165.751	-86.2274	-79.5236
-85.6714		-171.855	-88.9282	-82.9268
-85.5107		-170.43		-80.2002	-90.2298
-85.352			-168.091	-73.3643	-94.7267
-85.179			-171.02		-77.6062	-93.4138
-85.0265		-175.334	-75.2563	-100.0777
-84.9268		-174.357	-76.5839	-97.7731
-84.8556		-179.118	-77.0874	-102.0306
-84.6643		-177.999	-77.2095	-100.7895
-84.526			-181.722	-84.1217	-97.6003
-84.3449		-176.575	-76.9958	-99.5792
-84.1638		-181.783	-77.9571	-103.8259
-84.0194		-182.109	-80.5664	-101.5426
-83.9421		-184.489	-82.9315	-101.5575
-83.7284		-180.501	-88.5467	-91.9543
-83.6572		-179.301	-87.7075	-91.5935
-83.527			-181.783	-82.2754	-99.5076
-83.3419		-184.631	-84.8236	-99.8074
-83.1934		-174.662	-81.9702	-92.6918
-83.0001		-178.813	-76.2024	-102.6106
-83.0204		-179.382	-64.4989	-114.8831
-82.7804		-176.046	-62.8509	-113.1951
-82.5545		-180.644	-63.7512	-116.8928
-82.4772		-183.248	-66.2231	-117.0249
-82.3267		-183.655	-69.5343	-114.1207
-82.1354		-175.822	-70.6177	-105.2043
-82.0032		-164.49		-66.6504	-97.8396
-81.8547		-171.57		-60.8063	-110.7637
-81.7651		-176.473	-61.6608	-114.8122
-81.5881		-183.879	-66.4062	-117.4728
-81.4071		-184.55		-72.0062	-112.5438
-81.3013		-177.511	-74.6155	-102.8955
-81.1263		-184.53		-74.7223	-109.8077
-80.9371		-173.157	-77.3773	-95.7797
-80.8272		-168.66		-74.9664	-93.6936
-80.7113		-158.264	-70.7397	-87.5243
-80.638			-164.388	-76.6601	-87.7279
-80.4061		-173.258	-72.4792	-100.7788
-80.2576		-175.517	-72.3114	-103.2056
-80.1681		-173.116	-73.4863	-99.6297
-80.0175		-166.158	-73.0743	-93.0837
-79.8527		-171.468	-71.2433	-100.2247
-79.7205		-171.326	-72.1435	-99.1825
-79.5699		-167.033	-73.5321	-93.5009
-79.3583		-162.231	-71.0754	-91.1556
-79.3217		-159.871	-73.5168	-86.3542
-79.1162		-161.438	-77.3773	-84.0607
-78.9453		-163.127	-81.5735	-81.5535
-78.8212		-155.66		-81.253		-74.407
-78.7642		-161.784	-78.6438	-83.1402
-78.5913		-162.638	-75.6683	-86.9697
-78.4001		-169.434	-74.7986	-94.6354
-78.2251		-166.585	-78.4912	-88.0938
-78.099			-161.967	-78.4759	-83.4911
-77.9423		-168.396	-79.6661	-88.7299
-77.8792		-168.355	-73.5779	-94.7771
-77.6575		-170.308	-72.8149	-97.4931
-77.4947		-166.626	-65.5823	-101.0437
-77.3889		-167.725	-69.1223	-98.6027
-77.2384		-165.283	-67.6422	-97.6408
-77.0858		-167.501	-68.9087	-98.5923
-76.9637		-165.731	-74.6307	-91.1003
-76.7867		-169.861	-68.8324	-101.0286
-76.6016		-169.657	-76.7212	-92.9358
-76.5243		-171.122	-78.598		-92.524
-76.3513		-163.493	-70.404		-93.089
-76.2394		-162.821	-68.9087	-93.9123
-76.1255		-161.112	-64.3768	-96.7352
-75.977			-161.133	-62.7136	-98.4194
-75.8732		-169.434	-60.8978	-108.5362
-75.6453		-167.053	-65.9485	-101.1045
-75.5375		-166.809	-63.736		-103.073
-75.3381		-151.835	-61.0657	-90.7693
-75.1978		-158.793	-63.6139	-95.1791
-75.0899		-153.768	-64.9109	-88.8571
-74.9719		-157.227	-65.8417	-91.3853
-74.8336		-155.619	-68.9239	-86.6951
-74.683			-149.394	-66.8335	-82.5605
-74.4633		-148.153	-61.9202	-86.2328
-74.3534		-141.276	-68.1		-73.176
-74.152			-149.984	-63.8885	-86.0955
-74.0259		-150.92		-60.9131	-90.0069
-73.9384		-152.486	-63.7817	-88.7043
-73.7939		-147.766	-63.5681	-84.1979
-73.6373		-147.522	-60.5163	-87.0057
-73.4766		-154.643	-64.8346	-89.8084
-73.2772		-158.04		-65.918		-92.122
-73.1917		-150.777	-65.1092	-85.6678
-73.0778		-154.175	-65.3534	-88.8216
-72.8682		-153.87		-66.4978	-87.3722
-72.738			-151.713	-69.397		-82.316
-72.5854		-153.259	-67.5659	-85.6931
-72.4451		-151.388	-64.2242	-87.1638
-72.3067		-150.675	-63.9343	-86.7407
-72.262			-148.661	-63.1256	-85.5354
-71.9629		-160.95		-72.7997	-88.1503
-71.9405		-158.813	-72.5098	-86.3032
-71.7249		-164.429	-69.1376	-95.2914
-71.6374		-165.365	-69.6716	-95.6934
