time(s)					voltage (mv)	control	SB488	SB488+SB779	diff (TRPV4 current)
0					-98.7305	-28.9917	-144.348	-50.0488    -94.2992
5.00E-04				-98.6023	-29.6021	-134.888	-43.9453    -90.9427
0.001					-98.5229	-30.5176	-119.324	-53.7109    -65.6131
0.0015					-98.4314	-28.3813	-139.771	-50.9644    -88.8066
0.002					-98.3215	-29.6021	-133.057	-50.0488    -83.0082
0.0025					-98.2056	-29.2969	-142.517	-48.5229    -93.9941
0.003					-98.1262	-31.7383	-128.784	-54.9316    -73.8524
0.0035					-98.0103	-28.6865	-137.939	-52.4902    -85.4488
0.004					-97.9126	-27.4658	-138.55		-51.2695    -87.2805
0.0045					-97.8394	-29.2969	-145.264	-53.4058    -91.8582
0.005					-97.6929	-28.3813	-138.245	-57.373	    -80.872
0.0055					-97.644		-28.0762	-137.329	-54.0161    -83.3129
0.006					-97.5464	-26.5503	-132.751	-53.7109    -79.0401
0.0065					-97.4243	-25.0244	-129.089	-59.8145    -69.2745
0.007					-97.3206	-28.9917	-130.005	-61.3403    -68.6647
0.0075					-97.2168	-28.0762	-145.264	-61.3403    -83.9237
0.008					-97.1436	-26.5503	-151.672	-51.8799    -99.7921
0.0085					-97.0337	-28.3813	-156.86		-57.0679    -99.7921
0.009					-96.9177	-27.4658	-148.926	-59.8145    -89.1115
0.0095					-96.8018	-26.5503	-140.991	-62.8662    -78.1248
0.01					-96.7285	-23.1934	-138.245	-54.6265    -83.6185
0.0105					-96.6125	-27.4658	-132.751	-54.9316    -77.8194
0.011					-96.5271	-26.8555	-121.155	-54.3213    -66.8337
0.0115					-96.4294	-25.3296	-134.583	-58.8989    -75.6841
0.012					-96.3257	-25.0244	-144.348	-52.1851    -92.1629
0.0125					-96.2585	-25.0244	-148.926	-49.1333    -99.7927
0.013					-96.1182	-26.5503	-137.634	-51.2695    -86.3645
0.0135					-96.051		-25.6348	-131.531	-52.4902    -79.0408
0.014					-95.9473	-25.9399	-147.705	-47.6074    -100.0976
0.0145					-95.813		-27.771		-131.531	-54.0161    -77.5149
0.015					-95.7336	-25.6348	-134.277	-52.1851    -82.0919
0.0155					-95.6116	-29.6021	-136.414	-42.7246    -93.6894
0.016					-95.5322	-26.8555	-135.498	-50.6592    -84.8388
0.0165					-95.4407	-27.1606	-142.517	-54.9316    -87.5854
0.017					-95.3308	-29.9072	-134.277	-47.6074    -86.6696
0.0175					-95.2271	-27.4658	-140.991	-48.2178    -92.7732
0.018					-95.1172	-27.1606	-144.043	-47.3022    -96.7408
0.0185					-95.05		-27.4658	-146.179	-51.8799    -94.2991
0.019					-94.9158	-31.4331	-149.231	-49.7437    -99.4873
0.0195					-94.8303	-27.4658	-137.024	-52.1851    -84.8389
0.02					-94.7449	-26.8555	-116.882	-50.0488    -66.8332
0.0205					-94.6472	-25.6348	-139.771	-46.3867    -93.3843
0.021					-94.5068	-25.3296	-135.803	-41.8091    -93.9939
0.0215					-94.4397	-26.8555	-130.92		-40.8936    -90.0264
0.022					-94.3237	-29.6021	-135.803	-38.7573    -97.0457
0.0225					-94.2383	-28.0762	-124.207	-47.6074    -76.5996
0.023					-94.1467	-26.5503	-146.179	-44.5557    -101.6233
0.0235					-94.043		-26.8555	-138.55		-45.7764    -92.7736
0.024					-93.927		-29.2969	-145.874	-49.4385    -96.4355
0.0245					-93.8354	-30.8228	-151.367	-50.6592    -100.7078
0.025					-93.7439	-27.1606	-142.517	-44.2505    -98.2665
0.0255					-93.6279	-24.4141	-122.07		-48.5229    -73.5471
0.026					-93.5181	-27.4658	-131.531	-41.5039    -90.0271
0.0265					-93.4326	-25.3296	-143.738	-50.354	    -93.384
0.027					-93.3289	-26.8555	-129.089	-55.542	    -73.547
0.0275					-93.2495	-25.6348	-128.479	-53.1006    -75.3784
0.028					-93.1396	-25.9399	-137.634	-48.5229    -89.1111
0.0285					-93.0237	-27.4658	-146.79		-50.6592    -96.1308
0.029					-92.9321	-25.9399	-133.972	-44.8608    -89.1112
0.0295					-92.865		-23.4985	-120.544	-49.7437    -70.8003
0.03					-92.7307	-24.7192	-110.474	-48.8281    -61.6459
0.0305					-92.6331	-25.9399	-121.46		-46.6919    -74.7681
0.031					-92.5537	-26.2451	-121.155	-46.6919    -74.4631
0.0315					-92.4316	-26.8555	-119.629	-48.2178    -71.4112
0.032					-92.3584	-25.0244	-117.798	-50.354	    -67.444
0.0325					-92.2363	-27.4658	-117.493	-50.6592    -66.8338
0.033					-92.1387	-27.1606	-125.122	-43.335	    -81.787
0.0335					-92.041		-24.1089	-124.207	-41.8091    -82.3979
0.034					-91.9373	-25.0244	-111.084	-44.8608    -66.2232
0.0345					-91.8579	-24.4141	-120.239	-47.9126    -72.3264
0.035					-91.7542	-28.0762	-121.765	-45.7764    -75.9886
0.0355					-91.6565	-24.4141	-129.7		-44.5557    -85.1443
0.036					-91.5466	-27.771		-136.414	-49.7437    -86.6703
0.0365					-91.4307	-27.1606	-132.446	-49.1333    -83.3127
0.037					-91.3513	-26.8555	-128.784	-46.0815    -82.7025
0.0375					-91.2292	-29.6021	-131.531	-51.8799    -79.6511
0.038					-91.1499	-25.3296	-134.888	-44.8608    -90.0272
0.0385					-91.0278	-28.3813	-130.92		-40.8936    -90.0264
0.039					-90.9668	-28.0762	-119.019	-42.1143    -76.9047
0.0395					-90.8569	-26.8555	-135.193	-35.7056    -99.4874
0.04					-90.7532	-28.3813	-137.329	-42.1143    -95.2147
0.0405					-90.6677	-28.9917	-126.953	-48.2178    -78.7352
0.041					-90.5518	-29.6021	-116.272	-47.9126    -68.3594
0.0415					-90.4358	-24.7192	-125.122	-48.5229    -76.5991
0.042					-90.3625	-26.5503	-129.395	-47.6074    -81.7876
0.0425					-90.2405	-27.4658	-135.193	-49.7437    -85.4493
0.043					-90.1428	-27.4658	-128.174	-44.8608    -83.3132
0.0435					-90.0269	-26.2451	-134.888	-46.0815    -88.8065
0.044					-89.9292	-27.4658	-137.634	-43.335	    -94.299
0.0445					-89.8438	-26.5503	-137.939	-40.8936    -97.0454
0.045					-89.7644	-25.0244	-129.395	-44.5557    -84.8393
0.0455					-89.6362	-24.7192	-136.719	-40.5884    -96.1306
0.046					-89.5569	-24.1089	-138.245	-45.166	    -93.079
0.0465					-89.4714	-22.8882	-135.498	-37.5366    -97.9614
0.047					-89.3311	-26.2451	-122.986	-35.7056    -87.2804
0.0475					-89.27		-24.7192	-107.117	-33.5693    -73.5477
0.048					-89.1724	-25.6348	-113.831	-36.3159    -77.5151
0.0485					-89.0686	-24.4141	-125.427	-36.3159    -89.1111
0.049					-88.9587	-25.0244	-127.563	-40.5884    -86.9746
0.0495					-88.8428	-23.8037	-111.389	-46.3867    -65.0023
0.05					-88.7573	-26.8555	-121.765	-41.5039    -80.2611
0.0505					-88.6414	-25.0244	-133.667	-45.166	    -88.501
0.051					-88.562		-24.1089	-121.155	-43.9453    -77.2097
0.0515					-88.4583	-26.2451	-124.817	-43.335	    -81.482
0.052					-88.3484	-25.9399	-120.544	-39.6729    -80.8711
0.0525					-88.2629	-24.1089	-114.746	-40.2832    -74.4628
0.053					-88.147		-25.6348	-107.727	-44.2505    -63.4765
0.0535					-88.0493	-25.9399	-113.525	-45.4712    -68.0538
0.054					-87.97		-26.2451	-112.61		-41.5039    -71.1061
0.0545					-87.854		-24.1089	-113.831	-42.7246    -71.1064
0.055					-87.7563	-25.6348	-114.746	-41.8091    -72.9369
0.0555					-87.6526	-23.4985	-108.032	-42.4194    -65.6126
0.056					-87.5732	-25.3296	-113.831	-39.0625    -74.7685
0.0565					-87.4634	-22.2778	-113.22		-37.8418    -75.3782
0.057					-87.3657	-22.8882	-104.065	-38.7573    -65.3077
0.0575					-87.262		-22.2778	-112.61		-37.2314    -75.3786
0.058					-87.1399	-23.8037	-113.525	-36.3159    -77.2091
0.0585					-87.0605	-24.1089	-120.85		-34.4849    -86.3651
0.059					-86.9385	-24.7192	-118.408	-43.0298    -75.3782
0.0595					-86.8652	-25.6348	-118.713	-40.8936    -77.8194
0.06					-86.7615	-23.8037	-127.258	-39.6729    -87.5851
0.0605					-86.6577	-26.5503	-125.427	-43.9453    -81.4817
0.061					-86.554		-23.1934	-121.155	-39.978	    -81.177
0.0615					-86.438		-25.9399	-114.136	-39.978	    -74.158
0.062					-86.3525	-24.1089	-129.7		-38.7573    -90.9427
0.0625					-86.2366	-25.0244	-113.831	-43.335	    -70.496
0.063					-86.1633	-25.3296	-127.563	-39.6729    -87.8901
0.0635					-86.0474	-24.4141	-134.888	-40.5884    -94.2996
0.064					-85.9741	-23.4985	-121.46		-39.6729    -81.7871
0.0645					-85.8582	-24.4141	-118.103	-45.166	    -72.937
0.065					-85.7483	-25.6348	-106.812	-39.978	    -66.834
0.0655					-85.6628	-24.4141	-103.76		-37.2314    -66.5286
0.066					-85.5774	-22.2778	-107.727	-39.978	    -67.749
0.0665					-85.4553	-25.0244	-116.272	-40.8936    -75.3784
0.067					-85.3638	-25.6348	-113.831	-41.1987    -72.6323
0.0675					-85.2539	-25.3296	-101.624	-35.7056    -65.9184
0.068					-85.1563	-22.583		-106.812	-40.5884    -66.2236
0.0685					-85.0647	-22.8882	-106.506	-39.978	    -66.528
0.069					-84.9609	-25.0244	-111.694	-36.0107    -75.6833
0.0695					-84.8511	-24.4141	-121.155	-39.3677    -81.7873
0.07					-84.7473	-26.5503	-111.084	-38.147	    -72.937
0.0705					-84.6619	-23.1934	-108.337	-38.7573    -69.5797
0.071					-84.5398	-25.3296	-104.065	-33.2642    -70.8008
0.0715					-84.4482	-22.8882	-107.422	-34.4849    -72.9371
0.072					-84.3689	-22.8882	-103.76		-39.3677    -64.3923
0.0725					-84.2529	-23.4985	-98.877		-39.978	    -58.899
0.073					-84.1553	-23.4985	-105.896	-35.7056    -70.1904
0.0735					-84.0576	-20.4468	-104.37		-35.4004    -68.9696
0.074					-83.9539	-22.2778	-101.624	-34.4849    -67.1391
0.0745					-83.8623	-22.8882	-109.558	-36.6211    -72.9369
0.075					-83.7769	-21.0571	-106.201	-42.1143    -64.0867
0.0755					-83.6609	-24.1089	-111.389	-40.2832    -71.1058
0.076					-83.5571	-24.7192	-107.727	-39.978	    -67.749
0.0765					-83.4717	-24.1089	-109.558	-36.0107    -73.5473
0.077					-83.3801	-20.4468	-116.577	-39.0625    -77.5145
0.0775					-83.2703	-22.583		-118.408	-40.8936    -77.5144
0.078					-83.1604	-23.8037	-116.577	-45.166	    -71.411
0.0785					-83.0505	-21.6675	-110.168	-37.8418    -72.3262
0.079					-82.9773	-25.9399	-110.474	-38.4521    -72.0219
0.0795					-82.8674	-26.8555	-114.441	-37.5366    -76.9044
0.08					-82.7698	-25.0244	-111.694	-38.147	    -73.547
0.0805					-82.666		-24.4141	-118.713	-35.0952    -83.6178
0.081					-82.5867	-23.4985	-112.61		-35.4004    -77.2096
0.0815					-82.4768	-25.9399	-112.61		-37.2314    -75.3786
0.082					-82.3792	-26.5503	-114.441	-34.1797    -80.2613
0.0825					-82.2815	-22.583		-104.675	-36.6211    -68.0539
0.083					-82.1655	-21.3623	-115.967	-30.8228    -85.1442
0.0835					-82.0679	-25.6348	-106.506	-39.6729    -66.8331
0.084					-81.958		-22.8882	-95.2148	-34.1797    -61.0351
0.0845					-81.8665	-21.0571	-98.877		-31.1279    -67.7491
0.085					-81.7688	-24.1089	-95.2148	-33.5693    -61.6455
0.0855					-81.665		-22.8882	-97.6563	-35.7056    -61.9507
0.086					-81.5735	-25.6348	-100.403	-33.5693    -66.8337
0.0865					-81.4514	-20.1416	-108.643	-31.4331    -77.2099
0.087					-81.3782	-20.4468	-106.506	-28.6865    -77.8195
0.0875					-81.2683	-23.8037	-106.506	-34.79	    -71.716
0.088					-81.1707	-25.3296	-109.558	-35.0952    -74.4628
0.0885					-81.0791	-22.8882	-101.929	-39.6729    -62.2561
0.089					-80.9509	-20.752		-110.474	-36.3159    -74.1581
0.0895					-80.8533	-27.4658	-116.882	-39.0625    -77.8195
0.09					-80.7495	-27.4658	-112.915	-37.2314    -75.6836
0.0905					-80.6519	-26.2451	-114.136	-29.2969    -84.8391
0.091					-80.5542	-26.8555	-119.324	-27.4658    -91.8582
0.0915					-80.4749	-23.8037	-112.305	-31.1279    -81.1771
0.092					-80.3589	-26.5503	-112.915	-29.6021    -83.3129
0.0925					-80.2734	-24.7192	-111.084	-37.2314    -73.8526
0.093					-80.1697	-27.1606	-112.915	-41.8091    -71.1059
0.0935					-80.0537	-26.5503	-110.168	-38.7573    -71.4107
0.094					-79.9561	-26.5503	-104.675	-35.7056    -68.9694
0.0945					-79.8706	-24.1089	-106.812	-33.8745    -72.9375
0.095					-79.7668	-25.3296	-104.675	-33.8745    -70.8005
0.0955					-79.6509	-23.8037	-111.084	-32.3486    -78.7354
0.096					-79.5715	-25.6348	-101.013	-31.1279    -69.8851
0.0965					-79.4861	-21.6675	-103.76		-33.5693    -70.1907
0.097					-79.3579	-23.1934	-100.098	-32.3486    -67.7494
0.0975					-79.2847	-22.8882	-106.812	-29.9072    -76.9048
0.098					-79.1748	-23.8037	-104.37		-32.959	    -71.411
0.0985					-79.071		-21.6675	-94.9097	-34.4849    -60.4248
0.099					-78.9917	-25.0244	-103.149	-32.3486    -70.8004
0.0995					-78.8757	-24.7192	-109.253	-30.8228    -78.4302
0.1					-78.7659	-27.771		-96.4355	-32.959	    -63.4765
0.1005					-78.6865	-22.583		-99.4873	-31.1279    -68.3594
0.101					-78.5706	-25.9399	-104.065	-35.4004    -68.6646
0.1015					-78.4546	-24.1089	-101.013	-33.5693    -67.4437
0.102					-78.3508	-24.4141	-105.896	-39.6729    -66.2231
0.1025					-78.2532	-22.2778	-100.403	-34.4849    -65.9181
0.103					-78.1616	-22.8882	-110.168	-33.2642    -76.9038
0.1035					-78.0701	-21.3623	-101.624	-34.1797    -67.4443
0.104					-77.948		-21.3623	-106.506	-35.4004    -71.1056
0.1045					-77.8931	-20.752		-104.065	-35.0952    -68.9698
0.105					-77.7832	-18.6157	-107.117	-35.0952    -72.0218
0.1055					-77.6611	-22.583		-100.708	-30.5176    -70.1904
0.106					-77.5635	-20.752		-103.455	-35.0952    -68.3598
0.1065					-77.4719	-19.5313	-110.168	-33.8745    -76.2935
0.107					-77.3743	-22.2778	-101.929	-32.3486    -69.5804
0.1075					-77.2644	-23.8037	-102.539	-38.147	    -64.392
0.108					-77.1851	-23.1934	-98.877		-38.147	    -60.73
0.1085					-77.0935	-23.1934	-95.2148	-36.9263    -58.2885
0.109					-76.9775	-24.1089	-97.3511	-35.4004    -61.9507
0.1095					-76.8677	-23.1934	-106.201	-32.959	    -73.242
0.11					-76.7761	-18.0054	-104.98		-32.3486    -72.6314
0.1105					-76.6846	-24.4141	-104.675	-30.5176    -74.1574
0.111					-76.5625	-21.6675	-105.591	-30.5176    -75.0734
0.1115					-76.4648	-26.5503	-99.4873	-29.9072    -69.5801
0.112					-76.3794	-26.8555	-90.6372	-34.79	    -55.8472
0.1125					-76.2695	-25.6348	-91.5527	-31.4331    -60.1196
0.113					-76.1963	-23.8037	-91.5527	-32.0435    -59.5092
0.1135					-76.0803	-23.8037	-99.7925	-32.6538    -67.1387
0.114					-75.9766	-26.8555	-95.2148	-35.7056    -59.5092
0.1145					-75.8667	-23.4985	-96.4355	-34.1797    -62.2558
0.115					-75.769		-25.9399	-90.9424	-31.1279    -59.8145
0.1155					-75.6653	-25.6348	-97.6563	-33.5693    -64.087
0.116					-75.5798	-23.8037	-92.7734	-36.3159    -56.4575
0.1165					-75.4883	-22.2778	-96.4355	-37.2314    -59.2041
0.117					-75.3784	-25.6348	-94.6045	-36.0107    -58.5938
0.1175					-75.293		-26.2451	-87.2803	-37.2314    -50.0489
0.118					-75.1831	-24.1089	-87.8906	-35.0952    -52.7954
0.1185					-75.0793	-26.2451	-83.313		-33.5693    -49.7437
0.119					-74.9817	-26.2451	-93.689		-28.3813    -65.3077
0.1195					-74.884		-24.1089	-90.9424	-27.4658    -63.4766
0.12					-74.7803	-21.9727	-93.0786	-36.9263    -56.1523
0.1205					-74.6765	-21.6675	-97.0459	-31.4331    -65.6128
0.121					-74.5972	-25.3296	-100.098	-32.6538    -67.4442
0.1215					-74.4995	-27.1606	-95.52		-32.959	    -62.561
0.122					-74.3713	-27.4658	-86.9751	-33.5693    -53.4058
0.1225					-74.2981	-25.6348	-90.6372	-32.6538    -57.9834
0.123					-74.1882	-26.2451	-86.3647	-31.4331    -54.9316
0.1235					-74.0845	-25.9399	-97.3511	-34.4849    -62.8662
0.124					-73.9929	-23.8037	-93.0786	-32.6538    -60.4248
0.1245					-73.8953	-24.1089	-89.7217	-29.6021    -60.1196
0.125					-73.7732	-27.771		-92.1631	-29.2969    -62.8662
0.1255					-73.7		-25.9399	-92.1631	-31.1279    -61.0352
0.126					-73.5779	-22.2778	-96.1304	-33.8745    -62.2559
0.1265					-73.468		-20.752		-102.844	-32.6538    -70.1902
0.127					-73.3826	-24.4141	-105.896	-33.2642    -72.6318
0.1275					-73.2727	-23.1934	-97.3511	-36.6211    -60.73
0.128					-73.175		-25.9399	-86.6699	-32.6538    -54.0161
0.1285					-73.0774	-25.6348	-84.5337	-33.2642    -51.2695
0.129					-72.9675	-24.1089	-84.2285	-32.0435    -52.185
0.1295					-72.9065	-22.583		-79.9561	-34.1797    -45.7764
0.13					-72.8027	-23.8037	-81.4819	-29.6021    -51.8798
0.1305					-72.6746	-24.4141	-86.0596	-30.8228    -55.2368
0.131					-72.5891	-22.583		-88.8062	-31.4331    -57.3731
0.1315					-72.5037	-26.8555	-90.0269	-34.4849    -55.542
0.132					-72.3999	-24.1089	-89.4165	-32.959	    -56.4575
0.1325					-72.2839	-20.752		-86.9751	-27.4658    -59.5093
0.133					-72.1741	-22.8882	-99.4873	-27.771	    -71.7163
0.1335					-72.1069	-25.3296	-89.7217	-31.4331    -58.2886
0.134					-71.9788	-28.3813	-91.2476	-29.9072    -61.3404
0.1345					-71.8872	-22.583		-89.4165	-26.2451    -63.1714
0.135					-71.8018	-20.752		-84.8389	-30.5176    -54.3213
0.1355					-71.6919	-18.3105	-94.6045	-29.2969    -65.3076
0.136					-71.5881	-18.0054	-86.9751	-32.3486    -54.6265
0.1365					-71.4783	-20.752		-87.5854	-28.6865    -58.8989
0.137					-71.3989	-20.752		-89.4165	-28.3813    -61.0352
0.1375					-71.2952	-21.0571	-82.7026	-27.1606    -55.542
0.138					-71.2097	-20.4468	-89.4165	-32.3486    -57.0679
0.1385					-71.0999	-20.1416	-92.1631	-34.79	    -57.3731
0.139					-71.0022	-20.1416	-79.6509	-32.959	    -46.6919
0.1395					-70.8862	-17.7002	-81.4819	-34.1797    -47.3022
0.14					-70.7825	-21.3623	-81.1768	-33.8745    -47.3023
0.1405					-70.6848	-21.3623	-83.9233	-32.6538    -51.2695
0.141					-70.6116	-18.6157	-87.8906	-36.0107    -51.8799
0.1415					-70.4895	-18.9209	-78.7354	-34.4849    -44.2505
0.142					-70.3979	-20.752		-84.8389	-32.3486    -52.4903
0.1425					-70.2881	-21.3623	-78.125		-29.9072    -48.2178
0.143					-70.2026	-18.6157	-77.2095	-31.1279    -46.0816
0.1435					-70.105		-22.2778	-90.0269	-40.8936    -49.1333
0.144					-69.9951	-16.7847	-80.8716	-39.0625    -41.8091
0.1445					-69.8853	-20.1416	-83.9233	-35.4004    -48.5229
0.145					-69.7876	-20.752		-90.9424	-39.3677    -51.5747
0.1455					-69.6838	-22.8882	-89.7217	-39.978	    -49.7437
0.146					-69.574		-20.752		-85.144		-31.7383    -53.4057
0.1465					-69.4824	-19.8364	-84.2285	-31.1279    -53.1006
0.147					-69.3909	-19.5313	-87.2803	-31.4331    -55.8472
0.1475					-69.2871	-18.3105	-85.4492	-37.8418    -47.6074
0.148					-69.2078	-17.7002	-79.0405	-33.5693    -45.4712
0.1485					-69.104		-18.0054	-88.501		-34.1797    -54.3213
0.149					-68.9941	-19.5313	-91.5527	-29.9072    -61.6455
0.1495					-68.8904	-20.4468	-82.7026	-32.6538    -50.0488
0.15					-68.8171	-16.4795	-87.8906	-32.959	    -54.9316
0.1505					-68.689		-21.3623	-87.5854	-30.5176    -57.0678
0.151					-68.6096	-17.0898	-80.2612	-33.5693    -46.6919
0.1515					-68.512		-18.3105	-83.6182	-32.3486    -51.2696
0.152					-68.4082	-15.564		-83.6182	-31.7383    -51.8799
0.1525					-68.3105	-18.3105	-91.5527	-32.6538    -58.8989
0.153					-68.2068	-17.395		-83.9233	-34.1797    -49.7436
0.1535					-68.103		-17.395		-74.4629	-31.1279    -43.335
0.154					-68.0054	-17.395		-77.8198	-36.3159    -41.5039
0.1545					-67.8833	-20.1416	-88.1958	-33.2642    -54.9316
0.155					-67.7917	-20.4468	-89.7217	-30.8228    -58.8989
0.1555					-67.7185	-21.0571	-83.0078	-31.4331    -51.5747
0.156					-67.6025	-16.7847	-73.2422	-29.6021    -43.6401
0.1565					-67.4988	-18.3105	-73.2422	-28.6865    -44.5557
0.157					-67.4072	-20.1416	-77.8198	-28.3813    -49.4385
0.1575					-67.3157	-18.0054	-78.7354	-28.6865    -50.0489
0.158					-67.2302	-18.6157	-78.125		-26.5503    -51.5747
0.1585					-67.1082	-20.4468	-74.1577	-29.2969    -44.8608
0.159					-67.0166	-18.9209	-75.3784	-33.5693    -41.8091
0.1595					-66.9189	-20.752		-78.7354	-32.959	    -45.7764
0.16					-66.8091	-20.4468	-86.6699	-32.3486    -54.3213
0.1605					-66.7114	-22.583		-86.9751	-35.4004    -51.5747
0.161					-66.6138	-21.3623	-83.0078	-30.2124    -52.7954
0.1615					-66.5161	-17.7002	-80.5664	-31.7383    -48.8281
0.162					-66.4124	-18.6157	-74.4629	-33.8745    -40.5884
0.1625					-66.3208	-16.1743	-73.8525	-27.4658    -46.3867
0.163					-66.1926	-18.0054	-79.0405	-30.8228    -48.2177
0.1635					-66.1133	-18.9209	-87.2803	-29.2969    -57.9834
0.164					-66.0034	-19.8364	-85.4492	-26.8555    -58.5937
0.1645					-65.918		-14.6484	-85.4492	-32.959	    -52.4902
0.165					-65.8264	-18.3105	-85.4492	-29.2969    -56.1523
0.1655					-65.7166	-18.6157	-78.125		-26.5503    -51.5747
0.166					-65.6006	-20.1416	-78.7354	-27.771	    -50.9644
0.1665					-65.5151	-18.0054	-79.9561	-28.3813    -51.5748
0.167					-65.4175	-20.4468	-78.125		-27.1606    -50.9644
0.1675					-65.3259	-17.395		-86.0596	-32.6538    -53.4058
0.168					-65.2039	-18.0054	-83.6182	-29.9072    -53.711
0.1685					-65.1062	-17.395		-76.5991	-29.6021    -46.997
0.169					-65.0024	-20.752		-77.8198	-34.79	    -43.0298
0.1695					-64.8987	-20.1416	-80.5664	-28.9917    -51.5747
0.17					-64.8193	-17.7002	-74.1577	-31.1279    -43.0298
